* Measurement data measured by REW V5.31
* Source: P:\Reviews\Squig\site\data\Harman 2019v2 Target.txt
* Format: Comma/Tab/Space delimited data
* Dated: Oct 7, 2021 2:23:36 PM
* REW Settings:
*  C-weighting compensation: Off
*  Target level: 75.0 dB
* Note: Measurement imported from P:\Reviews\Squig\site\data\Harman 2019v2 Target.txt Format: Comma/Tab/Space delimited data 480 values loaded, 20 Hz to 19,753 Hz log spaced
* Measurement: Harman 2019v2 Target
* Smoothing: 1/12 octave
* Frequency Step: 96 ppo
* Start Frequency: 20.0 Hz
*
* Freq(Hz) SPL(dB)
20.000000 7.601
20.144928 7.602
20.290907 7.604
20.437943 7.608
20.586045 7.613
20.735220 7.622
20.885476 7.634
21.036820 7.648
21.189262 7.663
21.342808 7.676
21.497467 7.685
21.653246 7.691
21.810155 7.695
21.968200 7.697
22.127391 7.699
22.287735 7.699
22.449241 7.700
22.611917 7.700
22.775773 7.700
22.940815 7.700
23.107054 7.700
23.274497 7.700
23.443154 7.700
23.613033 7.700
23.784142 7.700
23.956492 7.700
24.130091 7.700
24.304947 7.700
24.481071 7.700
24.658471 7.700
24.837156 7.700
25.017137 7.700
25.198421 7.700
25.381019 7.700
25.564940 7.700
25.750195 7.700
25.936791 7.700
26.124740 7.700
26.314050 7.700
26.504733 7.700
26.696797 7.700
26.890253 7.700
27.085111 7.700
27.281381 7.700
27.479073 7.700
27.678198 7.700
27.878765 7.700
28.080786 7.700
28.284271 7.700
28.489231 7.700
28.695675 7.700
28.903616 7.700
29.113064 7.700
29.324029 7.700
29.536523 7.700
29.750557 7.700
29.966142 7.700
30.183289 7.700
30.402009 7.700
30.622315 7.700
30.844217 7.700
31.067726 7.700
31.292856 7.700
31.519617 7.700
31.748021 7.700
31.978080 7.700
32.209807 7.700
32.443212 7.699
32.678309 7.698
32.915110 7.697
33.153626 7.694
33.393871 7.689
33.635857 7.682
33.879596 7.672
34.125101 7.658
34.372386 7.643
34.621462 7.629
34.872344 7.618
35.125043 7.610
35.379574 7.605
35.635949 7.601
35.894182 7.598
36.154286 7.593
36.416274 7.587
36.680162 7.578
36.945961 7.566
37.213687 7.550
37.483353 7.534
37.754973 7.518
38.028561 7.505
38.304131 7.492
38.581699 7.479
38.861278 7.463
39.142882 7.447
39.426528 7.430
39.712229 7.415
40.000000 7.400
40.289856 7.386
40.581813 7.370
40.875886 7.352
41.172089 7.334
41.470439 7.318
41.770951 7.303
42.073641 7.288
42.378524 7.271
42.685616 7.252
42.994934 7.231
43.306493 7.208
43.620309 7.186
43.936400 7.163
44.254781 7.140
44.575470 7.119
44.898482 7.099
45.223835 7.078
45.551545 7.054
45.881631 7.025
46.214108 6.994
46.548994 6.962
46.886308 6.931
47.226065 6.901
47.568285 6.873
47.912984 6.844
48.260181 6.815
48.609894 6.787
48.962142 6.758
49.316942 6.729
49.674312 6.700
50.034273 6.669
50.396842 6.636
50.762038 6.602
51.129881 6.567
51.500389 6.533
51.873582 6.501
52.249480 6.468
52.628101 6.434
53.009466 6.399
53.393594 6.364
53.780506 6.330
54.170222 6.296
54.562762 6.262
54.958146 6.228
55.356395 6.193
55.757531 6.159
56.161573 6.129
56.568542 6.100
56.978461 6.072
57.391351 6.042
57.807232 6.009
58.226127 5.973
58.648058 5.936
59.073046 5.899
59.501113 5.863
59.932283 5.827
60.366577 5.792
60.804018 5.754
61.244629 5.714
61.688433 5.670
62.135453 5.626
62.585712 5.583
63.039234 5.544
63.496042 5.508
63.956161 5.474
64.419613 5.438
64.886424 5.399
65.356618 5.358
65.830219 5.314
66.307252 5.269
66.787742 5.224
67.271713 5.179
67.759192 5.135
68.250203 5.093
68.744772 5.054
69.242925 5.018
69.744688 4.983
70.250086 4.946
70.759147 4.907
71.271897 4.863
71.788363 4.817
72.308571 4.769
72.832549 4.721
73.360323 4.673
73.891923 4.628
74.427374 4.585
74.966705 4.547
75.509945 4.513
76.057121 4.481
76.608262 4.448
77.163398 4.413
77.722555 4.375
78.285765 4.334
78.853056 4.291
79.424458 4.246
80.000000 4.200
80.579713 4.154
81.163627 4.108
81.751772 4.062
82.344179 4.016
82.940879 3.972
83.541903 3.929
84.147282 3.888
84.757048 3.849
85.371232 3.813
85.989867 3.778
86.612985 3.741
87.240619 3.700
87.872800 3.655
88.509563 3.608
89.150939 3.560
89.796964 3.511
90.447670 3.462
91.103091 3.414
91.763261 3.366
92.428216 3.319
93.097989 3.276
93.772615 3.234
94.452130 3.195
95.136569 3.155
95.825968 3.112
96.520362 3.066
97.219789 3.017
97.924283 2.966
98.633883 2.914
99.348625 2.862
100.068546 2.811
100.793684 2.762
101.524077 2.716
102.259762 2.674
103.000778 2.636
103.747164 2.600
104.498959 2.564
105.256202 2.526
106.018931 2.485
106.787188 2.440
107.561012 2.393
108.340444 2.344
109.125523 2.295
109.916292 2.245
110.712791 2.195
111.515061 2.147
112.323145 2.100
113.137085 2.055
113.956923 2.013
114.782702 1.971
115.614465 1.927
116.452255 1.884
117.296116 1.841
118.146092 1.799
119.002227 1.758
119.864566 1.717
120.733154 1.673
121.608036 1.628
122.489258 1.581
123.376866 1.533
124.270906 1.486
125.171424 1.439
126.078468 1.393
126.992084 1.348
127.912321 1.301
128.839227 1.253
129.772849 1.205
130.713236 1.157
131.660438 1.111
132.614504 1.066
133.575483 1.021
134.543426 0.977
135.518384 0.935
136.500406 0.895
137.489544 0.858
138.485850 0.826
139.489375 0.796
140.500173 0.766
141.518295 0.734
142.543795 0.699
143.576726 0.660
144.617142 0.620
145.665098 0.578
146.720647 0.535
147.783845 0.494
148.854748 0.453
149.933411 0.414
151.019890 0.378
152.114242 0.345
153.216525 0.314
154.326795 0.285
155.445111 0.255
156.571530 0.221
157.706112 0.185
158.848915 0.147
160.000000 0.109
161.159426 0.073
162.327254 0.039
163.503544 0.006
164.688358 -0.025
165.881758 -0.059
167.083805 -0.095
168.294563 -0.134
169.514095 -0.174
170.742464 -0.213
171.979734 -0.250
173.225970 -0.284
174.481237 -0.317
175.745600 -0.351
177.019125 -0.386
178.301879 -0.422
179.593928 -0.457
180.895339 -0.491
182.206182 -0.524
183.526523 -0.559
184.856431 -0.596
186.195977 -0.633
187.545230 -0.669
188.904260 -0.704
190.273138 -0.739
191.651936 -0.775
193.040725 -0.812
194.439578 -0.848
195.848567 -0.881
197.267766 -0.913
198.697250 -0.942
200.137092 -0.971
201.587368 -0.997
203.048153 -1.023
204.519524 -1.049
206.001557 -1.075
207.494329 -1.100
208.997918 -1.125
210.512403 -1.151
212.037863 -1.178
213.574377 -1.203
215.122025 -1.227
216.680888 -1.250
218.251047 -1.270
219.832584 -1.288
221.425581 -1.304
223.030122 -1.321
224.646290 -1.339
226.274170 -1.359
227.913846 -1.377
229.565404 -1.395
231.228929 -1.412
232.904509 -1.431
234.592231 -1.450
236.292183 -1.468
238.004454 -1.485
239.729132 -1.500
241.466308 -1.515
243.216073 -1.531
244.978517 -1.547
246.753732 -1.563
248.541811 -1.576
250.342848 -1.586
252.156935 -1.592
253.984168 -1.597
255.824642 -1.600
257.678453 -1.603
259.545697 -1.608
261.426473 -1.614
263.320877 -1.624
265.229008 -1.636
267.150967 -1.651
269.086853 -1.666
271.036767 -1.678
273.000811 -1.686
274.979088 -1.692
276.971700 -1.696
278.978751 -1.698
281.000346 -1.699
283.036590 -1.699
285.087590 -1.700
287.153452 -1.700
289.234284 -1.700
291.330195 -1.700
293.441294 -1.700
295.567690 -1.700
297.709496 -1.700
299.866821 -1.700
302.039780 -1.700
304.228485 -1.700
306.433050 -1.700
308.653590 -1.700
310.890221 -1.700
313.143060 -1.700
315.412224 -1.700
317.697831 -1.700
320.000000 -1.700
322.318852 -1.700
324.654507 -1.700
327.007088 -1.700
329.376716 -1.700
331.763515 -1.700
334.167610 -1.700
336.589127 -1.700
339.028190 -1.700
341.484928 -1.700
343.959469 -1.700
346.451941 -1.699
348.962474 -1.699
351.491200 -1.698
354.038251 -1.696
356.603758 -1.693
359.187855 -1.687
361.790679 -1.679
364.412363 -1.667
367.053045 -1.652
369.712863 -1.637
372.391955 -1.625
375.090460 -1.615
377.808521 -1.609
380.546277 -1.605
383.303872 -1.603
386.081450 -1.601
388.879155 -1.601
391.697134 -1.600
394.535533 -1.600
397.394500 -1.600
400.274184 -1.600
403.174736 -1.600
406.096306 -1.599
409.039048 -1.598
412.003113 -1.596
414.988657 -1.593
417.995836 -1.588
421.024807 -1.580
424.075726 -1.568
427.148753 -1.554
430.244049 -1.539
433.361775 -1.526
436.502093 -1.516
439.665167 -1.509
442.851162 -1.505
446.060244 -1.503
449.292581 -1.501
452.548340 -1.500
455.827692 -1.499
459.130807 -1.497
462.457858 -1.495
465.809019 -1.491
469.184463 -1.484
472.584367 -1.474
476.008908 -1.461
479.458265 -1.446
482.932617 -1.432
486.432146 -1.421
489.957033 -1.412
493.507464 -1.407
497.083623 -1.403
500.685695 -1.401
504.313870 -1.398
507.968337 -1.395
511.649285 -1.391
515.356906 -1.384
519.091395 -1.375
522.852945 -1.362
526.641753 -1.347
530.458016 -1.332
534.301934 -1.320
538.173706 -1.311
542.073534 -1.304
546.001623 -1.298
549.958175 -1.292
553.943399 -1.284
557.957501 -1.274
562.000691 -1.260
566.073180 -1.245
570.175180 -1.231
574.306904 -1.219
578.468569 -1.211
582.660390 -1.205
586.882588 -1.201
591.135381 -1.196
595.418991 -1.191
599.733643 -1.184
604.079560 -1.174
608.456970 -1.160
612.866100 -1.145
617.307180 -1.129
621.780442 -1.116
626.286120 -1.105
630.824447 -1.094
635.395661 -1.082
640.000000 -1.068
644.637704 -1.052
649.309014 -1.036
654.014175 -1.022
658.753431 -1.011
663.527030 -1.002
668.335221 -0.993
673.178253 -0.983
678.056380 -0.971
682.969856 -0.956
687.918938 -0.940
692.903882 -0.926
697.924949 -0.913
702.982401 -0.903
708.076501 -0.893
713.207515 -0.882
718.375711 -0.868
723.581357 -0.852
728.824726 -0.835
734.106091 -0.818
739.425726 -0.802
744.783910 -0.786
750.180921 -0.770
755.617041 -0.752
761.092554 -0.735
766.607744 -0.719
772.162900 -0.706
777.758310 -0.693
783.394268 -0.680
789.071066 -0.664
794.789000 -0.647
800.548368 -0.630
806.349472 -0.615
812.192613 -0.601
818.078095 -0.586
824.006226 -0.571
829.977315 -0.554
835.991673 -0.536
842.049613 -0.519
848.151452 -0.503
854.297507 -0.487
860.488099 -0.469
866.723550 -0.449
873.004186 -0.426
879.330334 -0.403
885.702324 -0.380
892.120489 -0.358
898.585161 -0.337
905.096680 -0.318
911.655384 -0.300
918.261614 -0.283
924.915716 -0.263
931.618037 -0.241
938.368925 -0.216
945.168733 -0.191
952.017816 -0.164
958.916529 -0.137
965.865234 -0.110
972.864291 -0.083
979.914067 -0.055
987.014928 -0.028
994.167245 -0.001
1001.371391 0.026
1008.627741 0.053
1015.936673 0.079
1023.298569 0.104
1030.713812 0.130
1038.182790 0.157
1045.705890 0.184
1053.283506 0.212
1060.916032 0.242
1068.603867 0.274
1076.347412 0.309
1084.147069 0.344
1092.003245 0.378
1099.916351 0.411
1107.886798 0.445
1115.915003 0.480
1124.001383 0.516
1132.146360 0.551
1140.350359 0.586
1148.613808 0.621
1156.937137 0.658
1165.320781 0.698
1173.765175 0.743
1182.270762 0.789
1190.837983 0.836
1199.467286 0.883
1208.159120 0.931
1216.913939 0.979
1225.732199 1.027
1234.614360 1.075
1243.560885 1.123
1252.572239 1.170
1261.648894 1.217
1270.791322 1.265
1280.000000 1.315
1289.275408 1.369
1298.618029 1.426
1308.028350 1.487
1317.506863 1.549
1327.054061 1.610
1336.670442 1.669
1346.356507 1.726
1356.112761 1.780
1365.939713 1.833
1375.837875 1.886
1385.807763 1.940
1395.849898 1.996
1405.964802 2.053
1416.153002 2.111
1426.415031 2.169
1436.751422 2.226
1447.162715 2.283
1457.649452 2.340
1468.212181 2.398
1478.851452 2.458
1489.567819 2.521
1500.361842 2.585
1511.234082 2.649
1522.185107 2.713
1533.215488 2.777
1544.325799 2.841
1555.516621 2.904
1566.788535 2.965
1578.142131 3.026
1589.577999 3.090
1601.096737 3.157
1612.698944 3.230
1624.385225 3.307
1636.156190 3.385
1648.012452 3.462
1659.954630 3.538
1671.983345 3.612
1684.099226 3.687
1696.302903 3.763
1708.595013 3.840
1720.976197 3.919
1733.447100 4.000
1746.008372 4.084
1758.660669 4.170
1771.404649 4.256
1784.240977 4.341
1797.170323 4.428
1810.193360 4.517
1823.310767 4.610
1836.523229 4.705
1849.831433 4.800
1863.236074 4.895
1876.737851 4.987
1890.337467 5.078
1904.035631 5.170
1917.833058 5.262
1931.730467 5.356
1945.728583 5.449
1959.828134 5.542
1974.029857 5.634
1988.334491 5.728
2002.742782 5.822
2017.255482 5.915
2031.873347 6.007
2046.597138 6.095
2061.427625 6.180
2076.365579 6.262
2091.411780 6.344
2106.567012 6.427
2121.832065 6.511
2137.207735 6.598
2152.694823 6.687
2168.294137 6.778
2184.006490 6.872
2199.832702 6.965
2215.773596 7.056
2231.830005 7.143
2248.002765 7.226
2264.292720 7.307
2280.700718 7.387
2297.227616 7.468
2313.874274 7.547
2330.641561 7.625
2347.530351 7.702
2364.541523 7.774
2381.675966 7.843
2398.934572 7.910
2416.318240 7.976
2433.827878 8.043
2451.464399 8.111
2469.228720 8.178
2487.121769 8.244
2505.144479 8.308
2523.297789 8.371
2541.582644 8.433
2560.000000 8.495
2578.550815 8.554
2597.236057 8.607
2616.056701 8.654
2635.013726 8.697
2654.108121 8.739
2673.340883 8.782
2692.713013 8.827
2712.225522 8.874
2731.879426 8.921
2751.675750 8.966
2771.615527 9.007
2791.699796 9.044
2811.929603 9.075
2832.306004 9.104
2852.830061 9.132
2873.502844 9.161
2894.325430 9.190
2915.298905 9.220
2936.424363 9.246
2957.702904 9.269
2979.135638 9.289
3000.723683 9.305
3022.468164 9.322
3044.370214 9.339
3066.430976 9.356
3088.651599 9.371
3111.033242 9.382
3133.577071 9.389
3156.284262 9.394
3179.155999 9.397
3202.193474 9.398
3225.397888 9.399
3248.770450 9.399
3272.312380 9.399
3296.024905 9.399
3319.909260 9.398
3343.966691 9.396
3368.198452 9.393
3392.605806 9.388
3417.190027 9.380
3441.952394 9.368
3466.894200 9.353
3492.016745 9.336
3517.321337 9.319
3542.809298 9.303
3568.481954 9.286
3594.340646 9.268
3620.386720 9.247
3646.621534 9.224
3673.046457 9.201
3699.662866 9.176
3726.472148 9.151
3753.475701 9.125
3780.674934 9.100
3808.071263 9.073
3835.666117 9.045
3863.460935 9.014
3891.457165 8.983
3919.656268 8.953
3948.059713 8.924
3976.668981 8.898
4005.485564 8.872
4034.510963 8.845
4063.746693 8.818
4093.194277 8.790
4122.855250 8.761
4152.731158 8.727
4182.823560 8.691
4213.134024 8.653
4243.664130 8.614
4274.415470 8.577
4305.389646 8.541
4336.588274 8.508
4368.012981 8.475
4399.665403 8.442
4431.547192 8.406
4463.660010 8.370
4496.005531 8.333
4528.585440 8.297
4561.401437 8.259
4594.455232 8.219
4627.748549 8.176
4661.283122 8.131
4695.060701 8.085
4729.083046 8.040
4763.351932 7.996
4797.869143 7.954
4832.636481 7.914
4867.655757 7.875
4902.928797 7.835
4938.457440 7.793
4974.243539 7.749
5010.288958 7.707
5046.595577 7.667
5083.165289 7.630
5120.000000 7.594
5157.101631 7.559
5194.472115 7.522
5232.113401 7.482
5270.027452 7.441
5308.216243 7.401
5346.681766 7.362
5385.426026 7.324
5424.451043 7.288
5463.758851 7.251
5503.351500 7.212
5543.231054 7.170
5583.399591 7.128
5623.859206 7.086
5664.612008 7.046
5705.660122 7.007
5747.005687 6.972
5788.650860 6.940
5830.597810 6.911
5872.848725 6.882
5915.405808 6.851
5958.271277 6.815
6001.447367 6.774
6044.936328 6.727
6088.740429 6.676
6132.861952 6.621
6177.303198 6.564
6222.066483 6.506
6267.154142 6.448
6312.568524 6.389
6358.311998 6.329
6404.386948 6.267
6450.795775 6.202
6497.540901 6.138
6544.624761 6.074
6592.049809 6.012
6639.818520 5.949
6687.933382 5.884
6736.396904 5.815
6785.211613 5.744
6834.380053 5.670
6883.904789 5.593
6933.788400 5.513
6984.033489 5.430
7034.642675 5.345
7085.618596 5.260
7136.963909 5.174
7188.681291 5.088
7240.773439 4.999
7293.243069 4.905
7346.092914 4.808
7399.325732 4.708
7452.944296 4.607
7506.951403 4.504
7561.349867 4.401
7616.142525 4.296
7671.332234 4.190
7726.921869 4.084
7782.914330 3.979
7839.312536 3.874
7896.119426 3.770
7953.337962 3.663
8010.971128 3.554
8069.021927 3.441
8127.493386 3.326
8186.388553 3.210
8245.710500 3.093
8305.462317 2.975
8365.647121 2.853
8426.268048 2.730
8487.328260 2.603
8548.830939 2.472
8610.779292 2.338
8673.176549 2.201
8736.025961 2.064
8799.330806 1.927
8863.094385 1.790
8927.320020 1.651
8992.011061 1.511
9057.170880 1.368
9122.802874 1.224
9188.910464 1.080
9255.497097 0.937
9322.566244 0.794
9390.121402 0.649
9458.166093 0.500
9526.703863 0.345
9595.738287 0.188
9665.272962 0.030
9735.311514 -0.128
9805.857594 -0.284
9876.914881 -0.437
9948.487077 -0.587
10020.577916 -0.737
10093.191154 -0.887
10166.330578 -1.039
10240.000000 -1.192
10314.203261 -1.343
10388.944230 -1.491
10464.226802 -1.635
10540.054903 -1.780
10616.432486 -1.926
10693.363532 -2.074
10770.852052 -2.224
10848.902086 -2.376
10927.517703 -2.529
11006.703001 -2.683
11086.462108 -2.839
11166.799182 -2.996
11247.718413 -3.153
11329.224017 -3.312
11411.320244 -3.472
11494.011375 -3.633
11577.301719 -3.792
11661.195620 -3.948
11745.697450 -4.101
11830.811616 -4.252
11916.542554 -4.401
12002.894734 -4.548
12089.872657 -4.694
12177.480858 -4.836
12265.723904 -4.977
12354.606395 -5.116
12444.132966 -5.256
12534.308283 -5.395
12625.137048 -5.532
12716.623996 -5.667
12808.773895 -5.801
12901.591551 -5.936
12995.081802 -6.072
13089.249521 -6.210
13184.099619 -6.351
13279.637040 -6.492
13375.866764 -6.633
13472.793808 -6.771
13570.423226 -6.907
13668.760107 -7.040
13767.809577 -7.170
13867.576801 -7.302
13968.066979 -7.434
14069.285350 -7.566
14171.237191 -7.697
14273.927818 -7.825
14377.362583 -7.951
14481.546879 -8.076
14586.486137 -8.201
14692.185828 -8.329
14798.651463 -8.460
14905.888592 -8.596
15013.902806 -8.738
15122.699734 -8.886
15232.285051 -9.037
15342.664467 -9.191
15453.843739 -9.349
15565.828661 -9.512
15678.625072 -9.680
15792.238852 -9.855
15906.675925 -10.036
16021.942256 -10.224
16138.043854 -10.418
16254.986772 -10.622
16372.777107 -10.835
16491.420999 -11.056
16610.924634 -11.285
16731.294241 -11.521
16852.536096 -11.763
16974.656520 -12.011
17097.661878 -12.268
17221.558584 -12.535
17346.353097 -12.814
17472.051922 -13.107
17598.661613 -13.414
17726.188769 -13.731
17854.640040 -14.058
17984.022122 -14.392
18114.341760 -14.735
18245.605748 -15.087
18377.820928 -15.447
18510.994194 -15.815
18645.132489 -16.190
18780.242805 -16.571
18916.332186 -16.954
19053.407727 -17.331
19191.476573 -17.694
19330.545924 -18.026
19470.623028 -18.310
19611.715189 -18.521
19753.829761 -18.634
